Time (s),Vocal Tract Length (cm),f1 (Hz),f2 (Hz)
0.2800,14.41,594.91,2410.96
0.2900,14.41,594.91,2348.34
0.3000,21.07,407.05,6230.92
0.6400,39.12,219.18,4164.38
0.9100,8.05,1064.58,4164.38
0.9400,34.23,250.49,3193.74
0.9500,18.26,469.67,3600.78
0.9600,17.12,500.98,9769.08
0.9700,17.12,500.98,3945.21
0.9800,17.12,500.98,9393.35
0.9900,17.12,500.98,9111.55
1.0000,17.12,500.98,9205.48
1.0100,17.12,500.98,8923.68
1.0200,17.12,500.98,8892.37
1.0300,18.26,469.67,5166.34
1.0400,19.56,438.36,5354.21
1.0500,21.07,407.05,5479.45
1.0600,19.56,438.36,5510.76
1.0700,21.07,407.05,5416.83
1.0800,22.82,375.73,5448.14
1.0900,22.82,375.73,5385.52
1.1000,19.56,438.36,5291.59
1.1100,18.26,469.67,5291.59
1.1200,18.26,469.67,5197.65
1.1300,19.56,438.36,5072.41
1.1400,21.07,407.05,4821.92
1.1500,24.90,344.42,4853.23
1.3000,21.07,407.05,2818.00
1.3100,24.90,344.42,2692.76
1.3200,10.14,845.40,10332.68
1.3300,9.44,908.02,5072.41
1.5800,7.82,1095.89,7671.23
1.7600,7.40,1158.51,8673.19
1.8200,39.12,219.18,4696.67
1.8300,21.07,407.05,4759.30
1.8400,24.90,344.42,4853.23
2.0500,27.39,313.11,2974.56
2.0600,18.26,469.67,2974.56
2.0700,17.12,500.98,3005.87
2.0800,17.12,500.98,3005.87
2.0900,17.12,500.98,3193.74
2.1000,17.12,500.98,3256.36
2.1100,17.12,500.98,3099.80
2.1300,13.69,626.22,3193.74
2.2800,54.77,156.56,6731.90
2.2900,54.77,156.56,6606.65
2.3100,68.47,125.24,6481.41
2.3200,68.47,125.24,6606.65
2.3600,68.47,125.24,6575.34
2.4600,68.47,125.24,3037.18
2.4700,16.11,532.29,3256.36
2.4800,15.21,563.60,3131.12
2.4900,15.21,563.60,6700.59
2.5000,16.11,532.29,6794.52
2.5100,18.26,469.67,7107.63
2.5200,30.43,281.80,8954.99
2.9700,14.41,594.91,2129.16
2.9800,10.53,814.09,2160.47
2.9900,9.13,939.33,2097.85
3.0300,8.05,1064.58,2191.78
3.1300,8.56,1001.96,6919.77
3.1400,10.53,814.09,7107.63
3.1500,11.41,751.47,6857.14
3.1600,11.41,751.47,6637.96
3.1700,18.26,469.67,2755.38
3.1800,27.39,313.11,2974.56
3.1900,16.11,532.29,6794.52
3.2000,15.21,563.60,6825.83
3.2100,24.90,344.42,7013.70
3.3000,9.44,908.02,3350.29
3.4500,7.61,1127.20,3569.47
3.6300,8.30,1033.27,4477.50
3.6400,9.78,876.71,4477.50
3.6500,9.78,876.71,4508.81
3.6600,9.78,876.71,4571.43
