Time (s),Vocal Tract Length (cm),f1 (Hz),f2 (Hz)
0.8500,26.08,328.77,3569.47
0.8600,20.29,422.70,3569.47
0.8700,22.82,375.73,8829.75
0.8800,22.82,375.73,8923.68
0.8900,22.82,375.73,9299.41
0.9000,26.08,328.77,4133.07
1.0700,36.52,234.83,8219.18
1.2000,26.08,328.77,9628.18
1.2100,20.29,422.70,3757.34
1.2200,30.43,281.80,9299.41
1.2300,45.64,187.87,8219.18
1.2400,30.43,281.80,12587.08
1.2500,60.86,140.90,7749.51
1.2900,60.86,140.90,8078.28
1.3500,60.86,140.90,8735.81
1.3600,36.52,234.83,8547.95
1.3700,36.52,234.83,12962.82
1.3800,45.64,187.87,8547.95
1.3900,45.64,187.87,9017.61
1.4000,60.86,140.90,9158.51
1.4900,14.04,610.57,8923.68
1.5000,7.94,1080.23,8219.18
1.5100,10.14,845.40,8454.01
1.5200,12.17,704.50,8547.95
1.5300,14.04,610.57,8407.05
1.5400,11.41,751.47,7467.71
1.5600,20.29,422.70,7796.48
1.5700,20.29,422.70,7796.48
1.5800,20.29,422.70,7890.41
1.5900,20.29,422.70,3992.17
1.6000,22.82,375.73,4039.14
1.6400,60.86,140.90,4320.94
1.6500,26.08,328.77,4273.97
1.6600,22.82,375.73,3992.17
1.6700,26.08,328.77,3898.24
1.6800,26.08,328.77,3804.31
1.6900,26.08,328.77,3804.31
1.7000,36.52,234.83,3851.27
1.7100,36.52,234.83,8876.71
1.7200,45.64,187.87,9017.61
1.7300,91.29,93.93,9017.61
1.9500,22.82,375.73,3334.64
1.9600,22.82,375.73,3381.60
1.9700,20.29,422.70,3146.77
1.9800,16.60,516.63,3287.67
1.9900,15.21,563.60,8735.81
2.0000,16.60,516.63,8829.75
2.0100,18.26,469.67,17189.82
2.0200,20.29,422.70,21557.73
2.0300,26.08,328.77,9017.61
2.1600,60.86,140.90,5354.21
2.1700,91.29,93.93,8923.68
2.1800,22.82,375.73,9064.58
2.1900,22.82,375.73,9064.58
2.2000,45.64,187.87,8876.71
2.2500,36.52,234.83,17330.72
2.2600,36.52,234.83,9158.51
2.2700,36.52,234.83,4039.14
2.2900,30.43,281.80,9346.38
2.3000,26.08,328.77,9346.38
2.3100,26.08,328.77,3616.44
2.3200,26.08,328.77,9158.51
2.3300,30.43,281.80,8876.71
2.4300,45.64,187.87,9299.41
2.4400,45.64,187.87,9722.11
2.4500,20.29,422.70,9722.11
2.4600,22.82,375.73,9487.28
2.4700,20.29,422.70,9111.55
2.4800,20.29,422.70,8266.14
2.4900,26.08,328.77,8031.31
3.1000,7.30,1174.17,3992.17
