Time (s),Vocal Tract Length (cm),f1 (Hz),f2 (Hz)
1.2800,20.29,422.70,7655.58
1.2900,18.26,469.67,16720.16
1.3000,15.21,563.60,7514.68
1.3100,14.04,610.57,3757.34
1.3200,15.21,563.60,7937.38
1.3300,15.21,563.60,8829.75
1.3400,14.04,610.57,9017.61
1.3500,16.60,516.63,8782.78
1.3600,20.29,422.70,21604.70
1.6500,11.41,751.47,4273.97
1.6600,10.14,845.40,10097.85
1.6700,10.14,845.40,10191.78
1.6800,15.21,563.60,3804.31
1.6900,16.60,516.63,3663.41
1.7000,16.60,516.63,3616.44
1.7100,18.26,469.67,3616.44
1.7200,18.26,469.67,3569.47
1.7300,18.26,469.67,3381.60
1.7400,18.26,469.67,3334.64
1.7500,20.29,422.70,12821.92
1.7600,22.82,375.73,7843.44
1.7700,45.64,187.87,7890.41
1.8000,18.26,469.67,3945.21
1.8500,13.04,657.53,3992.17
1.8600,13.04,657.53,4180.04
1.8700,13.04,657.53,7185.91
1.8800,14.04,610.57,7138.94
1.8900,13.04,657.53,7185.91
1.9000,12.17,704.50,7232.88
1.9100,12.17,704.50,7420.74
1.9200,12.17,704.50,5682.97
1.9300,12.17,704.50,8172.21
1.9400,13.04,657.53,12023.48
1.9500,16.60,516.63,20994.13
1.9700,20.29,422.70,4555.77
1.9800,18.26,469.67,4320.94
1.9900,26.08,328.77,4227.01
2.0000,20.29,422.70,4367.91
2.0100,20.29,422.70,4602.74
2.0200,20.29,422.70,4508.81
2.0300,20.29,422.70,4508.81
2.0400,20.29,422.70,4508.81
2.0500,22.82,375.73,4461.84
2.0600,30.43,281.80,4320.94
2.0700,60.86,140.90,4227.01
2.0800,22.82,375.73,4367.91
2.0900,18.26,469.67,4367.91
2.1000,16.60,516.63,4320.94
2.1100,16.60,516.63,4227.01
2.1200,16.60,516.63,4180.04
2.1300,22.82,375.73,4180.04
2.2700,26.08,328.77,8594.91
2.2800,30.43,281.80,8500.98
2.2900,22.82,375.73,17330.72
2.3000,20.29,422.70,9863.01
2.3100,18.26,469.67,10614.48
2.3200,14.04,610.57,6434.44
2.3300,16.60,516.63,6669.28
2.3400,22.82,375.73,6763.21
2.6900,18.26,469.67,9487.28
2.7300,7.30,1174.17,5870.84
2.7400,9.13,939.33,10285.71
2.7500,9.61,892.37,10003.91
2.7600,7.30,1174.17,5776.91
2.7700,12.17,704.50,6011.74
2.7800,26.08,328.77,6575.34
2.8600,20.29,422.70,6904.11
2.8700,16.60,516.63,6387.48
2.8800,16.60,516.63,5072.41
2.8900,16.60,516.63,4602.74
2.9000,20.29,422.70,4884.54
2.9100,36.52,234.83,6105.68
2.9200,36.52,234.83,3663.41
2.9400,7.61,1127.20,6246.58
2.9500,7.94,1080.23,6246.58
