Time (s),Vocal Tract Length (cm),f1 (Hz),f2 (Hz)
0.0200,7.61,1127.20,8735.81
0.0300,9.13,939.33,9816.05
0.0900,45.64,187.87,2958.90
0.1000,20.29,422.70,2583.17
0.3400,36.52,234.83,6340.51
0.3500,7.61,1127.20,8641.88
0.4100,12.17,704.50,8688.85
0.4200,9.61,892.37,8266.14
0.5800,13.04,657.53,3146.77
0.5900,9.13,939.33,3569.47
0.6000,10.14,845.40,3475.54
0.6100,11.41,751.47,3475.54
0.6200,12.17,704.50,3522.50
0.6300,15.21,563.60,8782.78
0.6600,20.29,422.70,9111.55
0.6700,16.60,516.63,8970.65
0.6800,15.21,563.60,8782.78
0.6900,45.64,187.87,8782.78
0.7400,14.04,610.57,3381.60
0.7500,12.17,704.50,8688.85
0.7600,12.17,704.50,8782.78
0.7700,11.41,751.47,8641.88
0.7800,11.41,751.47,8454.01
0.7900,10.74,798.43,8688.85
0.8000,10.74,798.43,8594.91
0.8100,10.74,798.43,12915.85
0.8200,10.74,798.43,8219.18
0.8300,10.74,798.43,21651.66
0.8400,10.14,845.40,16908.02
0.8500,10.14,845.40,8454.01
0.8600,10.14,845.40,21604.70
0.9500,18.26,469.67,8266.14
0.9600,9.61,892.37,8641.88
0.9700,9.13,939.33,8641.88
1.3400,36.52,234.83,17565.56
1.3500,18.26,469.67,17706.46
1.3600,14.04,610.57,10285.71
1.3700,11.41,751.47,10144.81
1.3800,12.17,704.50,8970.65
1.3900,10.14,845.40,16626.22
1.4000,9.13,939.33,12164.38
1.4100,7.61,1127.20,21416.83
1.4300,9.61,892.37,8125.24
1.4400,10.74,798.43,8219.18
1.6600,11.41,751.47,18598.83
1.7200,91.29,93.93,8782.78
1.7300,22.82,375.73,3475.54
1.7400,20.29,422.70,3334.64
1.7500,26.08,328.77,8782.78
1.7600,30.43,281.80,8876.71
1.7700,26.08,328.77,3428.57
1.7800,18.26,469.67,3287.67
1.7900,60.86,140.90,8407.05
1.8200,22.82,375.73,8454.01
1.8300,16.60,516.63,8266.14
1.8400,16.60,516.63,2818.00
1.8500,20.29,422.70,3663.41
1.8800,18.26,469.67,3616.44
2.2800,8.30,1033.27,8641.88
2.2900,8.30,1033.27,3099.80
2.3100,9.13,939.33,9064.58
2.3400,7.30,1174.17,9017.61
2.3700,10.14,845.40,8266.14
2.4100,10.74,798.43,8641.88
2.4200,9.61,892.37,8360.08
2.4300,9.61,892.37,2958.90
2.4400,9.61,892.37,8313.11
2.4500,10.74,798.43,8078.28
2.4700,12.17,704.50,8500.98
2.4800,8.30,1033.27,8500.98
2.4900,14.04,610.57,8641.88
2.5000,26.08,328.77,8547.95
2.5200,11.41,751.47,3052.84
2.5900,7.94,1080.23,3240.70
