Time (s),Vocal Tract Length (cm),f1 (Hz),f2 (Hz)
0.0000,7.30,1174.17,3240.70
0.0100,12.17,704.50,5636.01
0.2100,12.17,704.50,3898.24
0.2200,8.30,1033.27,3428.57
0.3000,7.61,1127.20,5776.91
0.4000,13.04,657.53,5448.14
0.5400,7.61,1127.20,5401.17
0.6600,45.64,187.87,5542.07
0.7200,7.61,1127.20,3334.64
0.7300,7.61,1127.20,4884.54
0.7400,7.30,1174.17,4931.51
0.7500,20.29,422.70,5025.44
0.8700,45.64,187.87,3663.41
0.9100,9.61,892.37,5823.87
1.2400,30.43,281.80,21416.83
1.2600,18.26,469.67,21698.63
1.2700,16.60,516.63,12681.02
1.2800,18.26,469.67,17095.89
1.3000,26.08,328.77,18927.59
1.6500,15.21,563.60,2958.90
1.6600,9.61,892.37,3005.87
1.6700,12.17,704.50,2818.00
1.6800,14.04,610.57,2818.00
1.6900,14.04,610.57,3005.87
1.7000,26.08,328.77,2911.94
1.8200,30.43,281.80,18927.59
1.8700,18.26,469.67,18833.66
1.8900,18.26,469.67,16954.99
1.9000,20.29,422.70,21651.66
2.5900,45.64,187.87,21557.73
2.6400,60.86,140.90,16814.09
2.7400,45.64,187.87,21651.66
3.0700,20.29,422.70,17095.89
3.0800,18.26,469.67,21182.00
3.0900,18.26,469.67,17048.92
3.1000,22.82,375.73,21651.66
3.1100,26.08,328.77,21275.93
3.1300,30.43,281.80,21510.76
3.1400,36.52,234.83,21651.66
3.2600,7.30,1174.17,21510.76
3.3000,60.86,140.90,21510.76
3.3100,60.86,140.90,17048.92
3.3500,22.82,375.73,3757.34
3.3600,20.29,422.70,4461.84
3.3800,12.17,704.50,6575.34
3.3900,12.17,704.50,6434.44
3.4000,12.17,704.50,12634.05
3.4100,11.41,751.47,16814.09
3.4500,14.04,610.57,12727.98
3.4600,15.21,563.60,12634.05
3.4700,14.04,610.57,12634.05
3.4800,13.04,657.53,2771.04
3.4900,10.14,845.40,3099.80
3.5000,10.74,798.43,3287.67
3.5100,12.17,704.50,3428.57
3.5200,15.21,563.60,3334.64
3.5300,12.17,704.50,12727.98
3.5400,11.41,751.47,16908.02
3.5500,12.17,704.50,11929.55
3.5600,13.04,657.53,21557.73
3.5700,12.17,704.50,21604.70
3.5800,11.41,751.47,4696.67
3.5900,11.41,751.47,4743.64
3.6000,9.13,939.33,4602.74
3.6100,7.94,1080.23,14794.52
3.6200,9.61,892.37,3146.77
3.6300,18.26,469.67,3146.77
3.8400,9.61,892.37,6622.31
4.1800,18.26,469.67,12774.95
4.1900,9.13,939.33,3757.34
4.2300,7.94,1080.23,3898.24
4.2400,7.61,1127.20,3616.44
4.3200,7.61,1127.20,3005.87
4.3300,13.04,657.53,5917.81
4.3600,14.04,610.57,3428.57
4.4400,12.17,704.50,5682.97
4.4900,9.61,892.37,12587.08
