Time (s),Vocal Tract Length (cm),f1 (Hz),f2 (Hz)
0.4600,20.29,422.70,5682.97
0.4700,26.08,328.77,5682.97
0.4800,36.52,234.83,5682.97
0.5000,12.17,704.50,5776.91
0.5100,13.04,657.53,5823.87
0.5700,9.13,939.33,5917.81
0.6900,60.86,140.90,6716.24
0.7000,91.29,93.93,12587.08
0.7800,45.64,187.87,21651.66
0.7900,30.43,281.80,21651.66
0.8400,18.26,469.67,5213.31
1.0000,60.86,140.90,5636.01
1.0200,45.64,187.87,21698.63
1.0300,26.08,328.77,17189.82
1.0400,22.82,375.73,17095.89
1.0500,22.82,375.73,21698.63
1.0600,22.82,375.73,21604.70
1.0700,45.64,187.87,21510.76
1.0800,22.82,375.73,14794.52
1.0900,26.08,328.77,9863.01
1.1000,22.82,375.73,10896.28
1.1100,20.29,422.70,5964.77
1.1200,20.29,422.70,5448.14
1.1300,26.08,328.77,5025.44
1.1400,30.43,281.80,4931.51
1.2000,7.94,1080.23,5870.84
1.2100,10.14,845.40,5682.97
1.2200,26.08,328.77,5682.97
1.2300,26.08,328.77,10614.48
1.2400,22.82,375.73,19303.33
1.2700,20.29,422.70,19256.36
1.3100,22.82,375.73,21416.83
1.3200,36.52,234.83,21651.66
1.5500,20.29,422.70,2207.44
1.8100,45.64,187.87,21698.63
1.8200,30.43,281.80,17142.86
1.8400,26.08,328.77,21369.86
1.8500,36.52,234.83,21651.66
2.0500,91.29,93.93,12821.92
2.0700,45.64,187.87,17189.82
2.0800,91.29,93.93,21651.66
2.0900,45.64,187.87,21463.80
2.1000,36.52,234.83,21651.66
2.1100,20.29,422.70,21557.73
2.1200,20.29,422.70,21604.70
2.1300,18.26,469.67,16908.02
2.1600,18.26,469.67,21557.73
2.1700,18.26,469.67,21604.70
2.2000,22.82,375.73,21463.80
2.2100,30.43,281.80,21698.63
2.5900,7.94,1080.23,5589.04
2.6000,45.64,187.87,5589.04
2.6200,30.43,281.80,21463.80
2.6300,60.86,140.90,16954.99
2.6600,36.52,234.83,21651.66
2.9100,20.29,422.70,6246.58
2.9200,22.82,375.73,21416.83
2.9500,22.82,375.73,16954.99
2.9600,18.26,469.67,7514.68
2.9700,20.29,422.70,12305.28
2.9800,45.64,187.87,17048.92
3.0000,18.26,469.67,6293.54
3.0300,18.26,469.67,6293.54
3.0500,45.64,187.87,6011.74
3.0600,30.43,281.80,10332.68
3.1400,9.13,939.33,11741.68
3.1500,9.61,892.37,12305.28
3.1600,12.17,704.50,8172.21
3.1700,10.74,798.43,8407.05
3.1800,11.41,751.47,8594.91
3.2700,8.30,1033.27,5917.81
3.3000,15.21,563.60,5401.17
3.4200,10.14,845.40,5260.27
