Time (s),Vocal Tract Length (cm),f1 (Hz),f2 (Hz)
0.0000,18.26,469.67,4039.14
0.0600,7.30,1174.17,6293.54
0.0700,7.94,1080.23,6246.58
0.9900,15.21,563.60,6716.24
1.1300,22.82,375.73,21557.73
1.1600,26.08,328.77,12634.05
1.1700,20.29,422.70,12962.82
1.1800,45.64,187.87,12868.88
1.2100,30.43,281.80,4696.67
1.2200,45.64,187.87,19021.53
1.3800,22.82,375.73,3851.27
1.3900,14.04,610.57,12774.95
1.4000,13.04,657.53,6716.24
1.4100,13.04,657.53,12774.95
1.4200,15.21,563.60,12493.15
1.4300,22.82,375.73,16626.22
1.5300,7.30,1174.17,5495.11
1.8700,13.04,657.53,4320.94
1.9100,91.29,93.93,12305.28
1.9200,36.52,234.83,12493.15
2.2300,16.60,516.63,12446.18
2.2400,12.17,704.50,12305.28
2.2500,12.17,704.50,6716.24
2.2600,13.04,657.53,6904.11
2.2700,13.04,657.53,6857.14
2.2800,14.04,610.57,6810.18
2.2900,16.60,516.63,6716.24
2.3000,60.86,140.90,6528.38
2.6800,26.08,328.77,6951.08
2.6900,18.26,469.67,6904.11
2.7400,22.82,375.73,6669.28
2.7500,18.26,469.67,6575.34
2.7600,15.21,563.60,6669.28
2.7700,14.04,610.57,6716.24
2.7800,13.04,657.53,2958.90
2.7900,13.04,657.53,6669.28
2.8000,14.04,610.57,6528.38
2.8100,18.26,469.67,6293.54
3.0600,8.69,986.30,3616.44
3.0700,7.30,1174.17,3663.41
3.0800,12.17,704.50,3569.47
3.0900,18.26,469.67,3522.50
3.1000,16.60,516.63,7185.91
3.1100,16.60,516.63,6998.04
3.1200,16.60,516.63,3146.77
3.1300,18.26,469.67,3381.60
3.1400,20.29,422.70,3569.47
3.1500,20.29,422.70,3569.47
3.1600,20.29,422.70,3522.50
3.1700,20.29,422.70,3569.47
3.1800,22.82,375.73,3616.44
3.2800,36.52,234.83,3569.47
3.2900,36.52,234.83,3475.54
3.3000,30.43,281.80,3334.64
3.3100,30.43,281.80,3240.70
4.0800,11.41,751.47,2958.90
4.0900,10.14,845.40,3052.84
4.1000,9.13,939.33,3052.84
4.1100,9.13,939.33,3052.84
4.1200,9.13,939.33,3099.80
4.1300,9.61,892.37,3052.84
4.1400,14.04,610.57,12587.08
4.2600,8.30,1033.27,10943.25
4.2700,7.94,1080.23,4837.57
4.4000,14.04,610.57,2958.90
4.4100,16.60,516.63,3522.50
4.4200,14.04,610.57,3569.47
4.4300,13.04,657.53,3428.57
4.4400,12.17,704.50,3522.50
4.4500,12.17,704.50,3381.60
4.4600,13.04,657.53,3240.70
4.4700,14.04,610.57,2958.90
4.4800,15.21,563.60,12868.88
4.4900,15.21,563.60,12821.92
4.5000,15.21,563.60,12774.95
4.5100,15.21,563.60,3287.67
4.5200,16.60,516.63,12868.88
4.5300,20.29,422.70,12915.85
4.5400,15.21,563.60,7045.01
4.5500,15.21,563.60,7091.98
4.5600,15.21,563.60,7279.84
4.5700,16.60,516.63,7326.81
4.5800,18.26,469.67,7279.84
4.7300,16.60,516.63,3757.34
4.7400,15.21,563.60,3381.60
4.7500,15.21,563.60,2911.94
4.7600,14.04,610.57,12868.88
4.7700,13.04,657.53,12868.88
4.7800,12.17,704.50,7045.01
4.7900,12.17,704.50,2489.24
4.8000,11.41,751.47,7045.01
4.8100,11.41,751.47,6857.14
4.8200,13.04,657.53,6763.21
5.0400,91.29,93.93,16908.02
5.0500,22.82,375.73,12915.85
5.0600,30.43,281.80,8454.01
5.0800,22.82,375.73,3381.60
5.0900,18.26,469.67,3475.54
5.1000,16.60,516.63,3428.57
5.1100,18.26,469.67,3381.60
5.1200,18.26,469.67,3334.64
5.1300,16.60,516.63,3334.64
5.1400,20.29,422.70,3334.64
5.1500,22.82,375.73,3428.57
5.1600,18.26,469.67,3428.57
5.1700,22.82,375.73,3287.67
5.1800,26.08,328.77,3381.60
5.1900,26.08,328.77,3569.47
5.2000,26.08,328.77,3710.37
5.2100,30.43,281.80,3757.34
5.2200,45.64,187.87,3757.34
5.2800,7.94,1080.23,3804.31
5.2900,8.69,986.30,3898.24
5.3000,10.74,798.43,3992.17
5.4800,30.43,281.80,8500.98
5.4900,18.26,469.67,8547.95
5.5000,16.60,516.63,17189.82
5.5100,18.26,469.67,21651.66
5.5200,18.26,469.67,21322.90
5.5300,8.30,1033.27,6669.28
5.5400,13.04,657.53,6763.21
5.5500,13.04,657.53,6716.24
5.5600,12.17,704.50,6528.38
5.5700,11.41,751.47,6763.21
5.5800,13.04,657.53,6904.11
5.5900,15.21,563.60,6951.08
5.6000,15.21,563.60,12868.88
5.6100,14.04,610.57,7091.98
5.6200,13.04,657.53,3052.84
5.6300,16.60,516.63,7045.01
5.6400,20.29,422.70,6528.38
5.6500,36.52,234.83,6340.51
5.6600,30.43,281.80,6669.28
5.7200,60.86,140.90,21651.66
5.7300,30.43,281.80,21651.66
5.8000,60.86,140.90,3052.84
6.0100,7.94,1080.23,5448.14
6.0600,7.61,1127.20,6387.48
6.0700,7.61,1127.20,6387.48
6.0800,9.13,939.33,6387.48
6.0900,30.43,281.80,4180.04
6.1000,14.04,610.57,4649.71
