Time (s),Vocal Tract Length (cm),f1 (Hz),f2 (Hz)
0.0700,20.29,422.70,5870.84
0.0800,9.13,939.33,5870.84
0.2200,7.94,1080.23,5823.87
0.2300,7.61,1127.20,5682.97
0.3600,91.29,93.93,4086.11
0.3700,12.17,704.50,3898.24
0.4400,7.61,1127.20,4086.11
0.4500,10.74,798.43,3992.17
0.5100,14.04,610.57,4884.54
1.2200,36.52,234.83,3569.47
1.2600,60.86,140.90,17236.79
1.2700,30.43,281.80,12774.95
1.2800,20.29,422.70,12915.85
1.2900,18.26,469.67,17236.79
1.3000,18.26,469.67,21651.66
1.3100,26.08,328.77,21416.83
1.3200,26.08,328.77,16814.09
1.3300,26.08,328.77,16908.02
1.3400,26.08,328.77,21557.73
1.4900,8.30,1033.27,4931.51
1.5300,26.08,328.77,19162.43
1.5400,26.08,328.77,6199.61
1.5600,20.29,422.70,5917.81
1.5700,18.26,469.67,19397.26
1.6100,16.60,516.63,19444.23
1.6200,15.21,563.60,19444.23
1.6300,14.04,610.57,19303.33
1.6600,26.08,328.77,21322.90
2.2700,15.21,563.60,4133.07
2.2900,12.17,704.50,12305.28
2.3400,36.52,234.83,12446.18
2.3500,14.04,610.57,18645.79
2.3800,11.41,751.47,21463.80
2.3900,11.41,751.47,18692.76
2.4100,10.74,798.43,17095.89
2.4200,9.61,892.37,21322.90
2.4400,10.14,845.40,21604.70
2.4500,9.61,892.37,17001.96
2.4600,9.13,939.33,12587.08
2.4700,9.13,939.33,12399.22
2.5000,9.61,892.37,21416.83
2.5100,10.74,798.43,17048.92
2.5200,12.17,704.50,12587.08
2.5300,13.04,657.53,17048.92
2.5400,13.04,657.53,18974.56
2.5500,13.04,657.53,17048.92
2.5600,20.29,422.70,17142.86
2.9100,8.30,1033.27,19350.29
2.9200,7.30,1174.17,19350.29
2.9300,9.61,892.37,19350.29
3.0900,45.64,187.87,12821.92
3.2100,36.52,234.83,3052.84
3.2400,36.52,234.83,21651.66
3.2900,26.08,328.77,17001.96
3.3000,22.82,375.73,21604.70
3.3100,20.29,422.70,16908.02
3.3200,20.29,422.70,17142.86
3.3300,20.29,422.70,12681.02
3.3400,20.29,422.70,12587.08
3.3500,18.26,469.67,17236.79
3.3600,20.29,422.70,17236.79
3.3700,26.08,328.77,17189.82
3.3800,20.29,422.70,17189.82
3.3900,16.60,516.63,16908.02
3.4100,16.60,516.63,19303.33
4.0500,20.29,422.70,19350.29
4.0600,22.82,375.73,19350.29
4.0700,20.29,422.70,6011.74
4.0900,18.26,469.67,14935.42
4.1000,26.08,328.77,14841.49
4.1300,8.30,1033.27,11788.65
4.1400,7.30,1174.17,16720.16
