Time (s),Vocal Tract Length (cm),f1 (Hz),f2 (Hz)
0.0000,10.74,798.43,3898.24
0.0600,22.82,375.73,4978.47
0.0700,10.14,845.40,4978.47
0.0800,11.41,751.47,4790.61
0.0900,9.13,939.33,4790.61
0.1000,9.61,892.37,4602.74
0.1100,13.04,657.53,9628.18
0.1300,9.13,939.33,6058.71
0.1900,7.94,1080.23,7514.68
0.2000,10.74,798.43,8407.05
0.2200,8.30,1033.27,4884.54
0.2300,22.82,375.73,6246.58
0.4400,45.64,187.87,8313.11
0.5600,30.43,281.80,17001.96
0.5700,22.82,375.73,21557.73
0.5800,22.82,375.73,21698.63
0.5900,22.82,375.73,17142.86
0.6000,22.82,375.73,17048.92
0.6100,22.82,375.73,17048.92
0.6200,20.29,422.70,21651.66
0.6300,20.29,422.70,12821.92
0.6400,18.26,469.67,12915.85
0.6500,18.26,469.67,17283.76
0.6600,18.26,469.67,17048.92
0.6700,18.26,469.67,17095.89
0.6800,18.26,469.67,17189.82
0.6900,20.29,422.70,17142.86
0.7000,20.29,422.70,16954.99
0.7100,22.82,375.73,21651.66
0.7200,22.82,375.73,17142.86
0.7300,26.08,328.77,8219.18
0.7400,26.08,328.77,8219.18
0.7500,36.52,234.83,7749.51
0.7800,30.43,281.80,17189.82
0.7900,60.86,140.90,12587.08
0.8000,60.86,140.90,17142.86
0.8200,60.86,140.90,21651.66
0.8400,30.43,281.80,21651.66
0.8600,36.52,234.83,21651.66
0.8700,36.52,234.83,17048.92
0.8800,60.86,140.90,17236.79
1.0400,30.43,281.80,4414.87
1.0500,30.43,281.80,4086.11
1.0600,22.82,375.73,8923.68
1.0700,20.29,422.70,8782.78
1.0800,20.29,422.70,3757.34
1.0900,22.82,375.73,3945.21
1.1000,30.43,281.80,4039.14
1.1100,60.86,140.90,4039.14
1.2000,91.29,93.93,3804.31
1.2100,60.86,140.90,17330.72
1.2200,36.52,234.83,3851.27
1.2300,30.43,281.80,3757.34
1.2400,91.29,93.93,3428.57
1.4200,14.04,610.57,21651.66
1.4300,16.60,516.63,21698.63
1.4400,20.29,422.70,21651.66
1.4500,26.08,328.77,21416.83
1.4600,36.52,234.83,21416.83
2.4800,22.82,375.73,7091.98
2.5800,30.43,281.80,9769.08
2.5900,60.86,140.90,21651.66
2.6000,26.08,328.77,21698.63
2.6100,22.82,375.73,21651.66
2.6300,26.08,328.77,9956.95
2.6400,26.08,328.77,9816.05
2.6600,30.43,281.80,21275.93
2.6700,26.08,328.77,21369.86
2.8300,20.29,422.70,10849.32
2.8400,18.26,469.67,19350.29
2.8500,14.04,610.57,19162.43
2.8600,12.17,704.50,10661.45
2.8700,7.94,1080.23,10285.71
2.8800,9.61,892.37,10520.55
2.8900,10.14,845.40,10426.61
2.9000,10.74,798.43,10473.58
2.9100,10.74,798.43,10238.75
2.9200,11.41,751.47,9769.08
2.9300,15.21,563.60,8594.91
2.9400,12.17,704.50,9017.61
2.9500,10.74,798.43,3475.54
2.9600,12.17,704.50,3710.37
