Time (s),Vocal Tract Length (cm),f1 (Hz),f2 (Hz)
0.0000,10.74,798.43,4461.84
0.0800,10.74,798.43,4743.64
0.3300,7.94,1080.23,4978.47
0.3400,10.74,798.43,4837.57
1.0200,12.17,704.50,12727.98
1.3700,11.41,751.47,6669.28
1.3800,10.74,798.43,6716.24
1.3900,10.14,845.40,6763.21
1.4000,12.17,704.50,6810.18
1.4100,14.04,610.57,6763.21
1.4200,13.04,657.53,6810.18
1.4300,12.17,704.50,2864.97
1.4400,22.82,375.73,6528.38
1.4500,9.13,939.33,6763.21
1.4600,10.14,845.40,6857.14
1.4700,9.61,892.37,6951.08
1.4800,9.61,892.37,6998.04
1.4900,9.13,939.33,6951.08
1.5000,10.14,845.40,7091.98
1.5100,10.74,798.43,2677.10
1.5200,11.41,751.47,2630.14
1.5300,13.04,657.53,6904.11
1.5400,12.17,704.50,6951.08
1.5500,13.04,657.53,6998.04
1.6300,18.26,469.67,3052.84
1.8100,30.43,281.80,6528.38
1.8200,16.60,516.63,6481.41
2.0100,15.21,563.60,6669.28
2.0200,13.04,657.53,6716.24
2.0300,13.04,657.53,6716.24
2.0400,11.41,751.47,6763.21
2.0500,10.74,798.43,6763.21
2.0600,9.61,892.37,6716.24
2.0700,9.61,892.37,6763.21
2.0800,12.17,704.50,6763.21
2.0900,15.21,563.60,6763.21
2.2600,13.04,657.53,2864.97
2.2700,12.17,704.50,2911.94
2.2800,13.04,657.53,2864.97
2.2900,15.21,563.60,12821.92
2.3000,15.21,563.60,7984.34
2.3100,12.17,704.50,8547.95
2.3200,9.13,939.33,17095.89
2.3300,60.86,140.90,12164.38
2.5100,30.43,281.80,3710.37
2.5200,16.60,516.63,3381.60
2.5300,16.60,516.63,3522.50
3.0500,91.29,93.93,3522.50
3.1200,45.64,187.87,3569.47
3.1300,15.21,563.60,3381.60
3.1700,15.21,563.60,3146.77
3.1800,13.04,657.53,3193.74
3.1900,14.04,610.57,3193.74
3.2000,22.82,375.73,2958.90
3.2100,45.64,187.87,3052.84
3.4600,13.04,657.53,3005.87
3.4700,9.61,892.37,3193.74
3.4800,11.41,751.47,3287.67
3.4900,13.04,657.53,3287.67
3.7000,7.94,1080.23,3522.50
3.7400,60.86,140.90,2771.04
3.7700,36.52,234.83,21275.93
3.7900,91.29,93.93,21510.76
3.8300,10.74,798.43,12634.05
3.8400,10.74,798.43,3287.67
3.8500,18.26,469.67,12821.92
3.8600,18.26,469.67,21369.86
3.8700,18.26,469.67,21228.96
3.8800,14.04,610.57,6669.28
3.8900,14.04,610.57,6810.18
3.9000,14.04,610.57,6669.28
3.9100,18.26,469.67,6763.21
4.1400,45.64,187.87,3334.64
4.1500,12.17,704.50,3287.67
4.1600,13.04,657.53,3193.74
4.1700,13.04,657.53,3052.84
4.2400,26.08,328.77,2911.94
4.2500,16.60,516.63,3052.84
4.2600,15.21,563.60,3146.77
4.3100,9.61,892.37,3287.67
