Time (s),Vocal Tract Length (cm),f1 (Hz),f2 (Hz)
0.0000,36.52,234.83,3663.41
0.0500,8.69,986.30,6669.28
0.0600,8.30,1033.27,6669.28
0.0700,10.74,798.43,6622.31
0.0800,30.43,281.80,6246.58
0.1400,16.60,516.63,21510.76
1.0000,22.82,375.73,6857.14
1.0100,18.26,469.67,6810.18
1.0400,12.17,704.50,2724.07
1.0500,13.04,657.53,2771.04
1.0600,18.26,469.67,6904.11
1.0700,15.21,563.60,6763.21
1.1400,22.82,375.73,3193.74
1.1500,18.26,469.67,3099.80
1.1600,20.29,422.70,7561.64
1.1700,20.29,422.70,7467.71
1.1800,18.26,469.67,7420.74
1.1900,20.29,422.70,3099.80
1.5200,45.64,187.87,3381.60
1.5300,26.08,328.77,3381.60
1.5600,60.86,140.90,7232.88
1.8100,30.43,281.80,3005.87
1.8200,20.29,422.70,3052.84
1.8800,13.04,657.53,21557.73
1.8900,15.21,563.60,6763.21
2.5300,7.61,1127.20,3757.34
2.8700,12.17,704.50,3569.47
2.9200,7.30,1174.17,2818.00
2.9300,9.13,939.33,2864.97
2.9400,11.41,751.47,2911.94
2.9500,15.21,563.60,2677.10
2.9600,16.60,516.63,2583.17
2.9700,91.29,93.93,2583.17
3.1500,60.86,140.90,3146.77
3.4400,30.43,281.80,3616.44
3.5100,22.82,375.73,6998.04
3.6400,20.29,422.70,3569.47
3.6500,20.29,422.70,2724.07
3.6600,20.29,422.70,2677.10
3.6700,15.21,563.60,2771.04
3.6800,13.04,657.53,2818.00
3.6900,14.04,610.57,2771.04
3.7000,15.21,563.60,2818.00
3.7100,16.60,516.63,2818.00
3.7200,18.26,469.67,2911.94
3.7900,36.52,234.83,12821.92
3.8300,15.21,563.60,6763.21
3.8400,12.17,704.50,2630.14
3.8500,11.41,751.47,6904.11
3.9000,14.04,610.57,7045.01
3.9100,13.04,657.53,2864.97
3.9200,13.04,657.53,2911.94
3.9300,14.04,610.57,3052.84
3.9400,15.21,563.60,3099.80
4.0500,45.64,187.87,12821.92
4.0800,22.82,375.73,21604.70
4.0900,26.08,328.77,16579.26
4.1000,16.60,516.63,6904.11
4.1100,15.21,563.60,7091.98
4.1200,26.08,328.77,8782.78
4.1300,26.08,328.77,17236.79
4.1400,20.29,422.70,6669.28
4.1500,18.26,469.67,6810.18
4.1600,15.21,563.60,6810.18
4.1700,15.21,563.60,6857.14
4.1800,15.21,563.60,6857.14
4.1900,15.21,563.60,2818.00
4.2000,15.21,563.60,6998.04
4.2100,16.60,516.63,7045.01
4.2200,18.26,469.67,6998.04
4.2300,20.29,422.70,7279.84
4.2700,16.60,516.63,3287.67
